[SAMPLE]
{
[VERSION]
{
ASRFormat	1.0.0
MacroVersion	B.02.03 - Build 003 - 08/30/2017 12:00:00
CSVersion	 C.01.09 [144]
}
Sample	1
Well	1:1
TrayTypeL	104
TrayTypeR	102
PlateID	
PlateNum	0
PlateType	
PlatePos	
Position	1
PlateNumRows	0
PlateNumCols	0
PlateIsWell	0
Plate	01BL,YX,SD,1:10,2:10,3: 90.0,4: 90.0,5:  0.0,6:  0.0,7:O,8:O,9:1265.0,10:845.0,11:660.0,12: 90.0,13:135.0,14:110.0
FileName	Sulfa Drug LCMS Standard.D
SampleType	0
SampleID	Sulfa Drug LCMS Standard
SampleDescription	Walkup method: '2 min_10 to 100_pos' ,Target: 
Date	09-May-2020
Time	15:28:56
JobCode
TaskCode
UserName	Agilent
LabName
Instrument	LCMS_1
Conditions
Submitter	Ronghui Zhou
AnalysisTime	2
FileType	ChemStation
Method	ColPos_2 min_10 to 100.M
DAMethod	ColPos_2 min_10 to 100.M
Process
MSTune
MSMethod
InletMethod
PreRunMethod
PostRunMethod
SwitchMethod
FractionMethod
AcquisitionProcess
AcquisitionProcessParameters
AcquisitionProcessOptions
InjectionVolume	3
ReportScheme
SampleReportEnable
SampleReportFormat
[CONVERSIONPARMS]
{
SpecThreshSel	1
SpecThreshPer	5
SpecThreshNum	99
CalcPeakPurity	1
SplitByPlate  	0
CopyASRFile  	0
CopyASRFileLoc  	
auto_printrpt 	0
Auto_GenSumRprt 	0
auto_printSel 	1
InclUVspectra 	0
EZXSShowUVCh  	0
Auto_Integrate	0
Autoint_Start 	0
Autoint_End   	99
AutoSGFilterLen	7
CombineEICs   	0
MSTrgtPctFound	8
MSTrgtPctCnfrm	20
Target source	internal
PkThresDAD	10
SigNumPksDAD	6
PkA100PctDAD	0
SigSmoothDAD	0
PkThresMSPos	10
SigNumPksMSPos	6
PkA100PctMSPos	0
SigSmoothMSPos	0
PkThresMSNeg	10
SigNumPksMSNeg	6
PkA100PctMSNeg	0
SigSmoothMSNeg	0
PkThresMSEIC	10
SigNumPksMSEIC	6
PkA100PctMSEIC	0
SigSmoothMSEIC	0
PkThresADC1	10
SigNumPksADC1	6
PkA100PctADC1	0
SigSmoothADC1	0
PkThresADC2	10
SigNumPksADC2	6
PkA100PctADC2	0
SigSmoothADC2	0
PkThresOther	10
SigNumPksOther	6
PkA100PctOther	0
SigSmoothOther	0
}
[COMPOUND]
{
;Mass	Formula
}
[FRACTION]
{
;Mass	Org. Target	Ion Mode	Start Time	End Time	Start Site	No. Of Tubes	Volume
}
[FUNCTION]
{
Function	1
IonMode
Type	DAD
Description	DAD1
[CHROMATOGRAM]
{
TraceNumber	1
Description	DAD1 A, 254nm(+/-4) NoRef
Type	EWC
Range	254,250:258
ProcDesc
MaxIntensity	281.858921
Delay	0
Unscaled	TRUE
[TRACE]
{
0.0008	0.08
0.0017	0.08
0.0025	0.08
0.0033	0.08
0.0042	0.08
0.0050	0.08
0.0058	0.08
0.0067	0.08
0.0075	0.08
0.0083	0.07
0.0092	0.07
0.0100	0.06
0.0108	0.06
0.0117	0.05
0.0125	0.05
0.0133	0.05
0.0142	0.06
0.0150	0.07
0.0158	0.08
0.0167	0.09
0.0175	0.10
0.0183	0.10
0.0192	0.11
0.0200	0.11
0.0208	0.11
0.0217	0.11
0.0225	0.11
0.0233	0.11
0.0242	0.10
0.0250	0.09
0.0258	0.09
0.0267	0.08
0.0275	0.08
0.0283	0.08
0.0292	0.09
0.0300	0.10
0.0308	0.11
0.0317	0.12
0.0325	0.13
0.0333	0.14
0.0342	0.14
0.0350	0.14
0.0358	0.13
0.0367	0.12
0.0375	0.11
0.0383	0.10
0.0392	0.09
0.0400	0.08
0.0408	0.08
0.0417	0.10
0.0425	0.11
0.0433	0.13
0.0442	0.14
0.0450	0.14
0.0458	0.15
0.0467	0.16
0.0475	0.16
0.0483	0.16
0.0492	0.16
0.0500	0.15
0.0508	0.14
0.0517	0.13
0.0525	0.11
0.0533	0.11
0.0542	0.10
0.0550	0.10
0.0558	0.10
0.0567	0.10
0.0575	0.09
0.0583	0.08
0.0592	0.08
0.0600	0.07
0.0608	0.06
0.0617	0.05
0.0625	0.04
0.0633	0.03
0.0642	0.03
0.0650	0.03
0.0658	0.03
0.0667	0.04
0.0675	0.05
0.0683	0.05
0.0692	0.04
0.0700	0.02
0.0708	0.00
0.0717	-0.01
0.0725	-0.02
0.0733	-0.03
0.0742	-0.03
0.0750	-0.03
0.0758	-0.03
0.0767	-0.05
0.0775	-0.06
0.0783	-0.06
0.0792	-0.06
0.0800	-0.06
0.0808	-0.05
0.0817	-0.05
0.0825	-0.05
0.0833	-0.06
0.0842	-0.07
0.0850	-0.09
0.0858	-0.09
0.0867	-0.09
0.0875	-0.08
0.0883	-0.07
0.0892	-0.06
0.0900	-0.05
0.0908	-0.04
0.0917	-0.03
0.0925	-0.03
0.0933	-0.04
0.0942	-0.04
0.0950	-0.03
0.0958	-0.03
0.0967	-0.02
0.0975	-0.02
0.0983	-0.02
0.0992	-0.01
0.1000	-0.00
0.1008	0.01
0.1017	0.01
0.1025	0.01
0.1033	0.01
0.1042	0.01
0.1050	0.01
0.1058	0.01
0.1067	0.00
0.1075	0.00
0.1083	0.01
0.1092	0.01
0.1100	0.02
0.1108	0.02
0.1117	0.03
0.1125	0.04
0.1133	0.04
0.1142	0.05
0.1150	0.05
0.1158	0.06
0.1167	0.07
0.1175	0.07
0.1183	0.07
0.1192	0.08
0.1200	0.07
0.1208	0.06
0.1217	0.06
0.1225	0.05
0.1233	0.05
0.1242	0.05
0.1250	0.05
0.1258	0.06
0.1267	0.06
0.1275	0.06
0.1283	0.06
0.1292	0.07
0.1300	0.07
0.1308	0.07
0.1317	0.06
0.1325	0.06
0.1333	0.06
0.1342	0.06
0.1350	0.06
0.1358	0.06
0.1367	0.07
0.1375	0.08
0.1383	0.09
0.1392	0.09
0.1400	0.10
0.1408	0.10
0.1417	0.10
0.1425	0.10
0.1433	0.09
0.1442	0.08
0.1450	0.08
0.1458	0.08
0.1467	0.07
0.1475	0.07
0.1483	0.07
0.1492	0.08
0.1500	0.08
0.1508	0.09
0.1517	0.09
0.1525	0.09
0.1533	0.10
0.1542	0.09
0.1550	0.09
0.1558	0.08
0.1575	0.08
0.1583	0.08
0.1592	0.09
0.1600	0.10
0.1608	0.10
0.1617	0.10
0.1625	0.10
0.1633	0.11
0.1642	0.11
0.1650	0.11
0.1658	0.11
0.1667	0.12
0.1675	0.12
0.1683	0.12
0.1692	0.12
0.1700	0.12
0.1708	0.12
0.1717	0.11
0.1725	0.11
0.1733	0.10
0.1742	0.10
0.1750	0.10
0.1758	0.10
0.1767	0.11
0.1775	0.12
0.1783	0.13
0.1792	0.13
0.1800	0.13
0.1808	0.12
0.1817	0.12
0.1825	0.11
0.1833	0.10
0.1842	0.09
0.1850	0.09
0.1858	0.08
0.1867	0.07
0.1875	0.06
0.1883	0.05
0.1892	0.04
0.1900	0.03
0.1908	0.02
0.1917	0.02
0.1925	0.01
0.1933	-0.01
0.1942	-0.02
0.1950	-0.04
0.1958	-0.05
0.1967	-0.06
0.1975	-0.07
0.1983	-0.07
0.1992	-0.08
0.2000	-0.08
0.2008	-0.08
0.2017	-0.07
0.2025	-0.06
0.2033	-0.06
0.2042	-0.07
0.2050	-0.08
0.2058	-0.10
0.2067	-0.12
0.2075	-0.14
0.2083	-0.14
0.2092	-0.14
0.2100	-0.13
0.2108	-0.12
0.2117	-0.11
0.2125	-0.10
0.2133	-0.09
0.2142	-0.09
0.2150	-0.08
0.2158	-0.08
0.2167	-0.08
0.2175	-0.08
0.2183	-0.08
0.2192	-0.08
0.2200	-0.08
0.2208	-0.07
0.2217	-0.08
0.2225	-0.08
0.2233	-0.08
0.2242	-0.08
0.2250	-0.08
0.2258	-0.07
0.2267	-0.06
0.2275	-0.04
0.2283	-0.03
0.2292	-0.02
0.2300	-0.01
0.2308	-0.01
0.2317	-0.01
0.2325	-0.01
0.2333	-0.00
0.2342	0.00
0.2350	0.01
0.2358	0.02
0.2367	0.02
0.2375	0.02
0.2383	0.03
0.2392	0.03
0.2400	0.03
0.2408	0.03
0.2417	0.03
0.2425	0.02
0.2433	0.02
0.2442	0.03
0.2450	0.03
0.2458	0.04
0.2467	0.04
0.2475	0.05
0.2483	0.05
0.2492	0.05
0.2500	0.05
0.2508	0.06
0.2517	0.06
0.2525	0.06
0.2533	0.06
0.2542	0.06
0.2550	0.06
0.2558	0.06
0.2567	0.05
0.2575	0.05
0.2583	0.04
0.2592	0.04
0.2600	0.04
0.2608	0.04
0.2617	0.05
0.2625	0.06
0.2633	0.07
0.2642	0.09
0.2650	0.10
0.2658	0.10
0.2667	0.09
0.2675	0.08
0.2683	0.08
0.2692	0.06
0.2700	0.05
0.2708	0.05
0.2717	0.04
0.2725	0.04
0.2733	0.05
0.2742	0.05
0.2750	0.06
0.2758	0.07
0.2767	0.07
0.2775	0.08
0.2783	0.08
0.2792	0.08
0.2800	0.08
0.2808	0.09
0.2817	0.10
0.2825	0.11
0.2833	0.11
0.2842	0.11
0.2850	0.11
0.2858	0.11
0.2867	0.11
0.2875	0.11
0.2883	0.11
0.2892	0.11
0.2900	0.11
0.2908	0.10
0.2917	0.10
0.2925	0.10
0.2933	0.10
0.2942	0.11
0.2950	0.11
0.2958	0.12
0.2967	0.13
0.2975	0.14
0.2983	0.16
0.2992	0.17
0.3000	0.21
0.3008	0.26
0.3017	0.34
0.3025	0.42
0.3033	0.49
0.3042	0.56
0.3050	0.65
0.3058	0.76
0.3067	0.89
0.3075	1.08
0.3083	1.33
0.3092	1.60
0.3100	1.80
0.3108	1.81
0.3117	1.45
0.3125	0.50
0.3133	-1.24
0.3142	-3.92
0.3150	-7.66
0.3158	-12.49
0.3167	-18.39
0.3175	-25.21
0.3183	-32.62
0.3192	-40.09
0.3200	-46.84
0.3208	-52.06
0.3217	-55.08
0.3225	-55.62
0.3233	-53.78
0.3242	-49.95
0.3250	-44.71
0.3258	-38.69
0.3267	-32.42
0.3275	-26.19
0.3283	-20.07
0.3292	-14.11
0.3300	-8.44
0.3308	-3.19
0.3317	1.52
0.3325	5.62
0.3333	9.06
0.3342	11.80
0.3350	13.89
0.3358	15.39
0.3367	16.40
0.3375	17.02
0.3383	17.35
0.3392	17.47
0.3400	17.44
0.3408	17.31
0.3417	17.12
0.3425	16.88
0.3433	16.62
0.3442	16.35
0.3450	16.08
0.3458	15.82
0.3467	15.58
0.3475	15.37
0.3483	15.19
0.3492	15.02
0.3500	14.85
0.3508	14.67
0.3517	14.50
0.3525	14.35
0.3533	14.25
0.3542	14.20
0.3550	14.24
0.3558	14.34
0.3567	14.50
0.3575	14.68
0.3583	14.87
0.3592	15.04
0.3600	15.21
0.3608	15.35
0.3617	15.46
0.3625	15.55
0.3633	15.62
0.3642	15.67
0.3650	15.69
0.3658	15.69
0.3667	15.67
0.3675	15.62
0.3683	15.56
0.3692	15.47
0.3700	15.35
0.3708	15.20
0.3717	15.03
0.3725	14.83
0.3733	14.60
0.3742	14.37
0.3750	14.12
0.3758	13.85
0.3767	13.56
0.3775	13.24
0.3783	12.89
0.3792	12.46
0.3800	11.93
0.3808	11.24
0.3817	10.34
0.3825	9.16
0.3833	7.65
0.3842	5.80
0.3850	3.61
0.3858	1.10
0.3867	-1.66
0.3875	-4.60
0.3883	-7.62
0.3892	-10.62
0.3900	-13.47
0.3908	-16.08
0.3917	-18.35
0.3925	-20.21
0.3933	-21.60
0.3942	-22.50
0.3950	-22.95
0.3958	-22.97
0.3967	-22.61
0.3975	-21.94
0.3983	-21.05
0.3992	-20.01
0.4000	-18.86
0.4008	-17.66
0.4017	-16.42
0.4025	-15.16
0.4033	-13.90
0.4042	-12.63
0.4050	-11.37
0.4058	-10.13
0.4067	-8.94
0.4075	-7.81
0.4083	-6.75
0.4092	-5.77
0.4100	-4.87
0.4108	-4.06
0.4117	-3.33
0.4125	-2.67
0.4133	-2.10
0.4142	-1.61
0.4150	-1.18
0.4158	-0.82
0.4167	-0.50
0.4175	-0.23
0.4183	0.01
0.4192	0.21
0.4200	0.39
0.4208	0.54
0.4217	0.66
0.4225	0.76
0.4233	0.84
0.4242	0.90
0.4250	0.95
0.4258	0.99
0.4267	1.03
0.4275	1.07
0.4283	1.10
0.4292	1.13
0.4300	1.15
0.4308	1.18
0.4317	1.19
0.4325	1.21
0.4333	1.22
0.4342	1.23
0.4350	1.22
0.4358	1.21
0.4367	1.19
0.4375	1.16
0.4383	1.12
0.4392	1.07
0.4400	1.02
0.4408	0.98
0.4417	0.93
0.4425	0.88
0.4433	0.83
0.4442	0.78
0.4450	0.73
0.4458	0.68
0.4467	0.63
0.4475	0.59
0.4483	0.54
0.4492	0.50
0.4500	0.45
0.4508	0.41
0.4517	0.37
0.4525	0.34
0.4533	0.31
0.4542	0.28
0.4550	0.27
0.4558	0.26
0.4567	0.25
0.4575	0.23
0.4583	0.22
0.4592	0.21
0.4600	0.19
0.4608	0.18
0.4617	0.18
0.4625	0.18
0.4633	0.18
0.4642	0.18
0.4650	0.19
0.4658	0.20
0.4667	0.19
0.4675	0.19
0.4683	0.18
0.4692	0.18
0.4700	0.18
0.4708	0.18
0.4717	0.18
0.4725	0.19
0.4733	0.20
0.4742	0.21
0.4750	0.21
0.4758	0.21
0.4767	0.21
0.4775	0.20
0.4783	0.19
0.4792	0.18
0.4800	0.18
0.4808	0.18
0.4817	0.18
0.4825	0.18
0.4833	0.18
0.4842	0.18
0.4850	0.17
0.4858	0.17
0.4867	0.17
0.4875	0.17
0.4883	0.17
0.4892	0.17
0.4900	0.17
0.4908	0.16
0.4917	0.16
0.4925	0.17
0.4933	0.18
0.4942	0.19
0.4950	0.20
0.4958	0.21
0.4967	0.21
0.4975	0.21
0.4983	0.21
0.4992	0.22
0.5000	0.24
0.5008	0.27
0.5017	0.30
0.5025	0.33
0.5033	0.36
0.5042	0.37
0.5050	0.39
0.5058	0.41
0.5067	0.43
0.5075	0.46
0.5083	0.49
0.5092	0.53
0.5100	0.57
0.5108	0.62
0.5117	0.66
0.5125	0.71
0.5133	0.75
0.5142	0.78
0.5150	0.81
0.5158	0.84
0.5167	0.87
0.5175	0.91
0.5183	0.94
0.5192	0.97
0.5200	1.00
0.5208	1.01
0.5217	1.03
0.5225	1.04
0.5233	1.05
0.5242	1.06
0.5250	1.07
0.5258	1.08
0.5267	1.09
0.5275	1.10
0.5283	1.10
0.5292	1.11
0.5300	1.11
0.5308	1.11
0.5317	1.11
0.5325	1.10
0.5333	1.09
0.5342	1.08
0.5350	1.06
0.5358	1.04
0.5367	1.03
0.5375	1.02
0.5383	1.00
0.5392	0.99
0.5400	0.99
0.5408	0.97
0.5417	0.95
0.5425	0.92
0.5433	0.89
0.5442	0.86
0.5450	0.83
0.5458	0.81
0.5467	0.79
0.5475	0.77
0.5483	0.74
0.5492	0.71
0.5500	0.67
0.5508	0.63
0.5517	0.59
0.5525	0.56
0.5533	0.54
0.5542	0.52
0.5550	0.50
0.5558	0.49
0.5567	0.47
0.5575	0.45
0.5583	0.43
0.5592	0.42
0.5600	0.40
0.5608	0.39
0.5617	0.38
0.5625	0.37
0.5633	0.37
0.5642	0.36
0.5650	0.36
0.5658	0.36
0.5667	0.35
0.5675	0.34
0.5683	0.34
0.5692	0.33
0.5700	0.33
0.5708	0.32
0.5717	0.32
0.5725	0.32
0.5733	0.32
0.5742	0.32
0.5750	0.32
0.5758	0.31
0.5767	0.30
0.5775	0.30
0.5783	0.30
0.5792	0.30
0.5800	0.30
0.5808	0.30
0.5817	0.30
0.5825	0.30
0.5833	0.30
0.5842	0.30
0.5850	0.30
0.5858	0.30
0.5867	0.28
0.5875	0.27
0.5883	0.25
0.5892	0.24
0.5900	0.23
0.5908	0.22
0.5917	0.21
0.5925	0.21
0.5933	0.21
0.5942	0.20
0.5950	0.20
0.5958	0.20
0.5967	0.20
0.5975	0.20
0.5983	0.20
0.5992	0.19
0.6000	0.17
0.6008	0.16
0.6017	0.16
0.6025	0.15
0.6033	0.15
0.6042	0.16
0.6050	0.16
0.6058	0.17
0.6067	0.18
0.6075	0.18
0.6083	0.17
0.6092	0.16
0.6100	0.16
0.6108	0.15
0.6117	0.14
0.6125	0.14
0.6133	0.14
0.6142	0.15
0.6150	0.15
0.6158	0.15
0.6167	0.15
0.6175	0.15
0.6183	0.15
0.6192	0.15
0.6200	0.15
0.6208	0.15
0.6217	0.15
0.6225	0.15
0.6233	0.15
0.6242	0.15
0.6250	0.14
0.6258	0.13
0.6267	0.13
0.6275	0.12
0.6283	0.11
0.6292	0.10
0.6300	0.10
0.6308	0.11
0.6317	0.12
0.6325	0.12
0.6333	0.13
0.6342	0.14
0.6350	0.15
0.6358	0.15
0.6367	0.14
0.6375	0.13
0.6383	0.13
0.6392	0.13
0.6400	0.13
0.6408	0.13
0.6417	0.14
0.6425	0.14
0.6433	0.14
0.6442	0.13
0.6450	0.11
0.6458	0.10
0.6467	0.09
0.6475	0.09
0.6483	0.09
0.6492	0.09
0.6500	0.10
0.6508	0.11
0.6517	0.12
0.6525	0.13
0.6533	0.13
0.6542	0.13
0.6550	0.12
0.6558	0.11
0.6567	0.10
0.6575	0.09
0.6583	0.09
0.6592	0.09
0.6600	0.10
0.6608	0.11
0.6617	0.13
0.6625	0.13
0.6633	0.13
0.6642	0.12
0.6650	0.11
0.6658	0.09
0.6667	0.07
0.6675	0.05
0.6683	0.03
0.6692	0.02
0.6700	0.02
0.6708	0.01
0.6717	0.02
0.6725	0.03
0.6733	0.04
0.6742	0.06
0.6750	0.06
0.6758	0.06
0.6767	0.05
0.6775	0.05
0.6783	0.05
0.6792	0.06
0.6800	0.07
0.6808	0.08
0.6817	0.08
0.6825	0.08
0.6833	0.07
0.6842	0.06
0.6850	0.05
0.6858	0.05
0.6867	0.04
0.6875	0.04
0.6883	0.03
0.6892	0.02
0.6900	0.01
0.6908	0.01
0.6917	0.00
0.6925	0.01
0.6933	0.01
0.6942	0.02
0.6950	0.03
0.6958	0.03
0.6967	0.04
0.6975	0.04
0.6983	0.04
0.6992	0.03
0.7000	0.01
0.7008	-0.00
0.7017	-0.01
0.7025	-0.01
0.7033	-0.00
0.7042	0.01
0.7050	0.03
0.7058	0.04
0.7067	0.04
0.7075	0.03
0.7083	0.02
0.7092	0.01
0.7100	-0.01
0.7108	-0.01
0.7117	-0.02
0.7125	-0.01
0.7133	-0.01
0.7142	-0.00
0.7150	-0.01
0.7158	-0.01
0.7167	-0.02
0.7175	-0.02
0.7183	-0.04
0.7192	-0.05
0.7200	-0.05
0.7208	-0.05
0.7217	-0.05
0.7225	-0.05
0.7233	-0.05
0.7242	-0.04
0.7250	-0.03
0.7258	-0.03
0.7267	-0.03
0.7275	-0.03
0.7283	-0.03
0.7292	-0.03
0.7300	-0.03
0.7308	-0.03
0.7317	-0.03
0.7325	-0.03
0.7333	-0.03
0.7342	-0.04
0.7350	-0.05
0.7358	-0.05
0.7367	-0.06
0.7375	-0.05
0.7383	-0.04
0.7392	-0.03
0.7400	-0.03
0.7408	-0.03
0.7417	-0.04
0.7425	-0.05
0.7433	-0.05
0.7442	-0.06
0.7450	-0.05
0.7458	-0.05
0.7467	-0.04
0.7475	-0.04
0.7483	-0.04
0.7492	-0.04
0.7500	-0.04
0.7508	-0.04
0.7517	-0.04
0.7525	-0.04
0.7533	-0.04
0.7542	-0.04
0.7550	-0.05
0.7558	-0.05
0.7567	-0.04
0.7575	-0.04
0.7583	-0.03
0.7592	-0.03
0.7600	-0.03
0.7608	-0.03
0.7617	-0.03
0.7625	-0.03
0.7633	-0.04
0.7642	-0.05
0.7650	-0.05
0.7658	-0.06
0.7667	-0.07
0.7675	-0.07
0.7683	-0.07
0.7692	-0.07
0.7700	-0.07
0.7708	-0.07
0.7717	-0.07
0.7725	-0.07
0.7733	-0.07
0.7742	-0.07
0.7750	-0.08
0.7758	-0.08
0.7767	-0.09
0.7775	-0.09
0.7783	-0.10
0.7792	-0.09
0.7800	-0.09
0.7808	-0.09
0.7817	-0.09
0.7825	-0.09
0.7833	-0.09
0.7842	-0.10
0.7850	-0.11
0.7858	-0.12
0.7867	-0.13
0.7875	-0.14
0.7883	-0.15
0.7892	-0.15
0.7900	-0.16
0.7908	-0.16
0.7917	-0.16
0.7925	-0.16
0.7933	-0.16
0.7942	-0.15
0.7950	-0.14
0.7958	-0.14
0.7967	-0.14
0.7975	-0.14
0.7983	-0.14
0.7992	-0.14
0.8000	-0.14
0.8008	-0.15
0.8017	-0.15
0.8025	-0.16
0.8033	-0.16
0.8042	-0.17
0.8050	-0.17
0.8058	-0.19
0.8067	-0.20
0.8075	-0.21
0.8083	-0.21
0.8092	-0.22
0.8100	-0.22
0.8108	-0.21
0.8117	-0.20
0.8125	-0.20
0.8133	-0.20
0.8142	-0.20
0.8150	-0.21
0.8158	-0.22
0.8167	-0.24
0.8175	-0.26
0.8183	-0.28
0.8192	-0.30
0.8200	-0.31
0.8208	-0.32
0.8217	-0.34
0.8225	-0.35
0.8233	-0.35
0.8242	-0.34
0.8250	-0.34
0.8258	-0.34
0.8267	-0.35
0.8275	-0.35
0.8283	-0.36
0.8292	-0.38
0.8300	-0.39
0.8308	-0.39
0.8317	-0.39
0.8325	-0.40
0.8333	-0.40
0.8342	-0.42
0.8350	-0.44
0.8358	-0.46
0.8367	-0.48
0.8375	-0.51
0.8383	-0.54
0.8392	-0.57
0.8400	-0.60
0.8408	-0.62
0.8417	-0.64
0.8425	-0.65
0.8433	-0.66
0.8442	-0.67
0.8450	-0.69
0.8458	-0.70
0.8467	-0.71
0.8475	-0.73
0.8483	-0.75
0.8492	-0.77
0.8500	-0.78
0.8508	-0.80
0.8517	-0.81
0.8525	-0.82
0.8533	-0.84
0.8542	-0.85
0.8550	-0.87
0.8558	-0.89
0.8567	-0.91
0.8575	-0.92
0.8583	-0.94
0.8592	-0.96
0.8600	-0.98
0.8608	-1.00
0.8617	-1.03
0.8625	-1.06
0.8633	-1.08
0.8642	-1.10
0.8650	-1.13
0.8658	-1.16
0.8667	-1.18
0.8675	-1.20
0.8683	-1.22
0.8692	-1.24
0.8700	-1.25
0.8708	-1.26
0.8717	-1.27
0.8725	-1.29
0.8733	-1.30
0.8742	-1.31
0.8750	-1.33
0.8758	-1.35
0.8767	-1.37
0.8775	-1.38
0.8783	-1.40
0.8792	-1.42
0.8800	-1.44
0.8808	-1.45
0.8817	-1.47
0.8825	-1.48
0.8833	-1.49
0.8842	-1.51
0.8850	-1.53
0.8858	-1.55
0.8867	-1.57
0.8875	-1.60
0.8883	-1.62
0.8892	-1.64
0.8900	-1.66
0.8908	-1.67
0.8917	-1.68
0.8925	-1.69
0.8933	-1.71
0.8942	-1.73
0.8950	-1.74
0.8958	-1.76
0.8967	-1.76
0.8975	-1.77
0.8983	-1.79
0.8992	-1.81
0.9000	-1.84
0.9008	-1.87
0.9017	-1.90
0.9025	-1.92
0.9033	-1.94
0.9042	-1.95
0.9050	-1.95
0.9058	-1.96
0.9067	-1.97
0.9075	-1.99
0.9083	-2.00
0.9092	-2.02
0.9100	-2.03
0.9108	-2.05
0.9117	-2.06
0.9125	-2.07
0.9133	-2.08
0.9142	-2.08
0.9150	-2.08
0.9158	-2.09
0.9167	-2.10
0.9175	-2.10
0.9183	-2.11
0.9192	-2.11
0.9200	-2.12
0.9208	-2.12
0.9217	-2.12
0.9225	-2.12
0.9233	-2.12
0.9242	-2.13
0.9250	-2.14
0.9258	-2.14
0.9267	-2.15
0.9275	-2.16
0.9283	-2.17
0.9292	-2.19
0.9300	-2.21
0.9308	-2.22
0.9317	-2.23
0.9325	-2.24
0.9333	-2.24
0.9342	-2.25
0.9350	-2.25
0.9358	-2.26
0.9367	-2.26
0.9375	-2.27
0.9383	-2.27
0.9392	-2.28
0.9400	-2.30
0.9408	-2.32
0.9417	-2.34
0.9425	-2.35
0.9433	-2.37
0.9442	-2.38
0.9450	-2.38
0.9458	-2.38
0.9467	-2.38
0.9475	-2.39
0.9483	-2.40
0.9492	-2.41
0.9500	-2.41
0.9508	-2.42
0.9517	-2.42
0.9525	-2.42
0.9533	-2.43
0.9542	-2.44
0.9550	-2.45
0.9558	-2.46
0.9567	-2.47
0.9575	-2.48
0.9583	-2.49
0.9592	-2.49
0.9600	-2.48
0.9608	-2.48
0.9617	-2.47
0.9625	-2.47
0.9633	-2.45
0.9642	-2.43
0.9650	-2.41
0.9658	-2.37
0.9667	-2.29
0.9675	-2.16
0.9683	-1.94
0.9692	-1.60
0.9700	-1.09
0.9708	-0.34
0.9717	0.72
0.9725	2.18
0.9733	4.16
0.9742	6.76
0.9750	10.10
0.9758	14.27
0.9767	19.38
0.9775	25.49
0.9783	32.63
0.9792	40.79
0.9800	49.91
0.9808	59.93
0.9817	70.71
0.9825	82.09
0.9833	93.89
0.9842	105.90
0.9850	117.93
0.9858	129.74
0.9867	141.13
0.9875	151.90
0.9883	161.87
0.9892	170.86
0.9900	178.73
0.9908	185.35
0.9917	190.63
0.9925	194.48
0.9933	196.84
0.9942	197.69
0.9950	197.04
0.9958	194.94
0.9967	191.44
0.9975	186.67
0.9983	180.74
0.9992	173.82
1.0000	166.08
1.0008	157.68
1.0017	148.82
1.0025	139.67
1.0033	130.42
1.0042	121.19
1.0050	112.13
1.0058	103.35
1.0067	94.94
1.0075	86.94
1.0083	79.41
1.0092	72.38
1.0100	65.86
1.0108	59.85
1.0117	54.35
1.0125	49.37
1.0133	44.93
1.0142	41.04
1.0150	37.76
1.0158	35.15
1.0167	33.33
1.0175	32.41
1.0183	32.51
1.0192	33.78
1.0200	36.36
1.0208	40.35
1.0217	45.82
1.0225	52.81
1.0233	61.30
1.0242	71.22
1.0250	82.43
1.0258	94.72
1.0267	107.89
1.0275	121.65
1.0283	135.72
1.0292	149.78
1.0300	163.53
1.0308	176.62
1.0317	188.74
1.0325	199.55
1.0333	208.77
1.0342	216.15
1.0350	221.48
1.0358	224.66
1.0367	225.64
1.0375	224.48
1.0383	221.27
1.0392	216.20
1.0400	209.48
1.0408	201.37
1.0417	192.16
1.0425	182.10
1.0433	171.48
1.0442	160.55
1.0450	149.54
1.0458	138.62
1.0467	127.95
1.0475	117.66
1.0483	107.82
1.0492	98.50
1.0500	89.72
1.0508	81.51
1.0517	73.87
1.0525	66.78
1.0533	60.23
1.0542	54.21
1.0550	48.69
1.0558	43.64
1.0567	39.04
1.0575	34.87
1.0583	31.09
1.0592	27.66
1.0600	24.57
1.0608	21.79
1.0617	19.28
1.0625	17.03
1.0633	15.00
1.0642	13.20
1.0650	11.58
1.0658	10.15
1.0667	8.88
1.0675	7.77
1.0683	6.78
1.0692	5.92
1.0700	5.15
1.0708	4.47
1.0717	3.86
1.0725	3.33
1.0733	2.85
1.0742	2.44
1.0750	2.08
1.0758	1.78
1.0767	1.51
1.0775	1.27
1.0783	1.06
1.0792	0.88
1.0800	0.71
1.0808	0.56
1.0817	0.42
1.0825	0.30
1.0833	0.19
1.0842	0.09
1.0850	-0.00
1.0858	-0.09
1.0867	-0.17
1.0875	-0.25
1.0883	-0.31
1.0892	-0.37
1.0900	-0.41
1.0908	-0.43
1.0917	-0.45
1.0925	-0.47
1.0933	-0.49
1.0942	-0.51
1.0950	-0.52
1.0958	-0.53
1.0967	-0.55
1.0975	-0.56
1.0983	-0.56
1.0992	-0.56
1.1000	-0.57
1.1008	-0.58
1.1017	-0.59
1.1025	-0.59
1.1033	-0.59
1.1042	-0.59
1.1050	-0.60
1.1058	-0.61
1.1067	-0.63
1.1075	-0.65
1.1083	-0.67
1.1092	-0.70
1.1100	-0.74
1.1108	-0.77
1.1117	-0.79
1.1125	-0.81
1.1133	-0.84
1.1142	-0.87
1.1150	-0.91
1.1158	-0.93
1.1167	-0.96
1.1175	-0.99
1.1183	-1.01
1.1192	-1.03
1.1200	-1.05
1.1208	-1.07
1.1217	-1.09
1.1225	-1.12
1.1233	-1.13
1.1242	-1.13
1.1250	-1.12
1.1258	-1.12
1.1267	-1.11
1.1275	-1.09
1.1283	-1.08
1.1292	-1.07
1.1300	-1.05
1.1308	-1.03
1.1317	-1.00
1.1325	-0.97
1.1333	-0.93
1.1342	-0.88
1.1350	-0.84
1.1358	-0.79
1.1367	-0.76
1.1375	-0.72
1.1383	-0.69
1.1392	-0.68
1.1400	-0.66
1.1408	-0.64
1.1417	-0.63
1.1425	-0.62
1.1433	-0.60
1.1442	-0.58
1.1450	-0.54
1.1458	-0.44
1.1467	-0.24
1.1475	0.12
1.1483	0.74
1.1492	1.76
1.1500	3.36
1.1508	5.77
1.1517	9.23
1.1525	13.99
1.1533	20.31
1.1542	28.39
1.1550	38.35
1.1558	50.23
1.1567	63.90
1.1575	79.12
1.1583	95.50
1.1592	112.53
1.1600	129.61
1.1608	146.10
1.1617	161.39
1.1625	174.90
1.1633	186.16
1.1642	194.87
1.1650	200.84
1.1658	204.06
1.1667	204.63
1.1675	202.77
1.1683	198.79
1.1692	193.03
1.1700	185.83
1.1708	177.55
1.1717	168.50
1.1725	158.97
1.1733	149.18
1.1742	139.31
1.1750	129.49
1.1758	119.85
1.1767	110.46
1.1775	101.35
1.1783	92.59
1.1792	84.19
1.1800	76.20
